File: solution/Tensile_test_PE.csv
Time;Displacement;Force
(s);(mm);(kN)
0;0,1366;0,005
0,86;0,8289;0,0774
1,72;15,468;0,12
2,58;22,625;0,1412
3,44;29,802;0,1523
4,3;36,965;0,1577
5,16;44,115;0,1599
6,02;51,297;0,1604
6,88;58,472;0,1597
7,74;65,648;0,1586
8,6;72,793;0,157
9,46;79,947;0,1553
10,32;87,138;0,1536
11,18;94,305;0,1519
12,04;10,147;0,1503
12,9;108,626;0,1487
13,76;115,801;0,1472
14,62;12,297;0,1454
15,48;130,115;0,1435
16,34;13,729;0,1417
17,2;144,462;0,1396
18,06;151,646;0,1375
18,92;158,799;0,1351
19,78;16,595;0,133
20,64;173,125;0,1308
21,5;18,03;0,1289
22,36;18,748;0,1273
23,22;194,625;0,1259
24,08;201,782;0,1248
24,94;208,972;0,1239
25,8;216,129;0,1233
26,66;223,299;0,1228
27,52;230,456;0,1222
28,38;237,642;0,122
29,24;244,807;0,122
30,1;251,949;0,122
30,96;259,124;0,1221
31,82;266,299;0,1221
32,68;273,481;0,1221
33,54;280,629;0,122
34,4;28,779;0,1222
35,26;294,964;0,1222
36,12;302,132;0,1222
36,98;309,301;0,1225
37,84;316,456;0,1228
38,7;323,627;0,1231
39,56;330,811;0,1234
40,42;337,962;0,1236
41,28;345,121;0,1236
42,14;352,289;0,1237
43;359,486;0,1238
43,86;366,638;0,1238
44,72;373,786;0,1238
45,58;380,954;0,1237
46,44;388,136;0,1236
47,3;395,302;0,1235
48,16;402,462;0,1236
49,02;409,627;0,1237
49,88;41,68;0,1238
50,74;423,957;0,1239
51,6;431,123;0,1241
52,46;438,281;0,1242
53,32;445,468;0,1243
54,18;452,646;0,1243
55,04;459,787;0,1244
55,9;466,952;0,1245
56,76;474,127;0,1246
57,62;481,312;0,1247
58,48;488,461;0,1248
59,34;495,618;0,1248
60,2;502,797;0,1248
61,06;509,971;0,1247
61,92;517,127;0,1246
62,78;524,284;0,1245
63,64;531,467;0,1245
64,5;538,646;0,1243
65,36;545,796;0,1243
66,22;552,957;0,1243
67,08;560,114;0,1243
67,94;567,303;0,1242
68,8;574,475;0,124
69,66;581,626;0,124
70,52;588,793;0,124
71,38;595,962;0,1238
72,24;603,138;0,1239
73,1;610,294;0,1238
73,96;617,449;0,1238
74,82;62,464;0,1237
75,68;631,803;0,1236
76,54;638,959;0,1236
77,4;646,113;0,1236
78,26;653,301;0,1237
79,12;660,481;0,1237
79,98;667,624;0,1237
80,84;674,796;0,1237
81,7;681,955;0,1237
82,56;689,142;0,1237
83,42;696,297;0,1237
84,28;703,466;0,1238
85,14;710,635;0,1237
86;717,804;0,1235
86,86;724,966;0,1235
87,72;732,115;0,1234
88,58;739,286;0,1234
89,44;746,482;0,1234
90,3;753,642;0,1235
91,16;760,794;0,1234
92,02;767,943;0,1232
92,88;77,514;0,123
93,74;782,306;0,1229
94,6;78,946;0,1228
95,46;796,633;0,1227
96,32;803,798;0,1226
97,18;810,972;0,1225
98,04;81,812;0,1224
98,9;825,288;0,1224
99,76;832,471;0,1224
100,62;839,641;0,1224
101,48;846,797;0,1225
102,34;853,941;0,1223
103,2;861,121;0,1221
104,06;868,307;0,1219
104,92;875,469;0,1217
105,78;882,635;0,1215
106,64;88,979;0,1213
107,5;896,973;0,1211
108,36;904,123;0,1209
109,22;911,287;0,1207
110,08;918,467;0,1205
110,94;925,638;0,1203
111,8;932,806;0,1201
112,66;93,995;0,1199
113,52;947,121;0,1198
114,38;95,431;0,1196
115,24;961,471;0,1194
116,1;968,632;0,1194
116,96;97,578;0,1193
117,82;982,962;0,1194
118,68;990,141;0,1194
119,54;997,292;0,1194
120,4;1,004,466;0,1195
121,26;1,011,634;0,1195
122,12;1,018,806;0,1196
122,98;1,025,956;0,1197
123,84;103,311;0,12
124,7;104,03;0,1204
125,56;1,047,478;0,1209
126,42;1,054,642;0,1213
127,28;1,061,782;0,1217
128,14;1,068,956;0,1221
129;1,076,146;0,1225
129,86;1,083,297;0,1228
130,72;109,047;0,1232
131,58;1,097,622;0,1236
132,44;1,104,805;0,124
133,3;1,111,962;0,1243
134,16;1,119,123;0,1247
135,02;1,126,291;0,1253
135,88;1,133,471;0,1258
136,74;1,140,647;0,1263
137,6;1,147,791;0,1265
138,46;1,154,945;0,1267
139,32;1,162,134;0,1268
140,18;1,169,306;0,127
141,04;1,176,467;0,1273
141,9;1,183,623;0,1275
142,76;1,190,801;0,1278
143,62;1,197,973;0,128
144,48;1,205,117;0,1281
145,34;1,212,289;0,1282
146,2;1,219,462;0,1282
147,06;1,226,645;0,1283
147,92;123,38;0,1284
148,78;1,240,955;0,1286
149,64;1,248,126;0,1286
150,5;1,255,304;0,1285
151,36;1,262,479;0,1285
152,22;1,269,622;0,1285
153,08;1,276,788;0,1286
153,94;1,283,972;0,1287
154,8;1,291,128;0,1287
155,66;1,298,295;0,1288
156,52;1,305,459;0,129
157,38;1,312,644;0,1291
158,24;1,319,802;0,129
159,1;1,326,945;0,129
159,96;1,334,122;0,1291
160,82;1,341,299;0,1293
161,68;1,348,479;0,1295
162,54;1,355,627;0,1297
163,4;1,362,787;0,13
164,26;1,369,967;0,1302
165,12;1,377,132;0,1303
165,98;1,384,299;0,1306
166,84;1,391,452;0,1308
167,7;1,398,627;0,1311
168,56;140,581;0,1313
169,42;1,412,958;0,1314
170,28;1,420,121;0,1316
171,14;1,427,292;0,1319
172;1,434,482;0,1322
172,86;144,164;0,1323
173,72;1,448,785;0,1326
174,58;1,455,954;0,1327
175,44;1,463,131;0,1329
176,3;1,470,305;0,1332
177,16;1,477,462;0,1335
178,02;1,484,626;0,134
178,88;1,491,805;0,1344
179,74;1,498,959;0,1347
180,6;1,506,123;0,1351
181,46;1,513,286;0,1354
182,32;152,047;0,1357
183,18;1,527,645;0,1361
184,04;153,479;0,1365
184,9;1,541,957;0,137
185,76;1,549,125;0,1374
186,62;1,556,314;0,1379
187,48;1,563,468;0,1384
188,34;1,570,622;0,1389
189,2;157,78;0,1393
190,06;1,584,968;0,1397
190,92;1,592,129;0,14
191,78;1,599,282;0,1404
192,64;1,606,465;0,1408
193,5;1,613,649;0,1412
194,36;1,620,795;0,1416
195,22;1,627,956;0,1423
196,08;1,635,115;0,1427
196,94;1,642,303;0,1432
197,8;1,649,474;0,1437
198,66;1,656,628;0,1443
199,52;1,663,794;0,1448
200,38;1,670,959;0,1453
201,24;1,678,139;0,1457
202,1;1,685,288;0,1462
202,96;1,692,457;0,1467
203,82;1,699,644;0,1472
204,68;1,706,796;0,1476
205,54;171,396;0,148
206,4;1,721,112;0,1483
207,26;1,728,302;0,1487
208,12;1,735,482;0,1491
208,98;1,742,628;0,1496
209,84;1,749,793;0,1501
210,7;1,756,954;0,1506
211,56;176,414;0,1511
212,42;1,771,297;0,1516
213,28;1,778,461;0,1523
214,14;1,785,639;0,153
215;1,792,801;0,1536
215,86;1,799,963;0,1542
216,72;1,807,116;0,1547
217,58;1,814,289;0,1552
218,44;1,821,482;0,1557
219,3;1,828,637;0,1562
220,16;1,835,797;0,1567
221,02;1,842,947;0,1572
221,88;1,850,136;0,1577
222,74;1,857,306;0,1581
223,6;186,446;0,1587
224,46;1,871,629;0,1593
225,32;1,878,799;0,1597
226,18;1,885,972;0,1602
227,04;1,893,115;0,1607
227,9;190,029;0,1612
228,76;1,907,476;0,1616
229,62;1,914,639;0,1621
230,48;1,921,799;0,1627
231,34;1,928,941;0,1632
232,2;1,936,125;0,1637
233,06;1,943,308;0,1641
233,92;1,950,466;0,1645
234,78;1,957,634;0,165
235,64;1,964,792;0,1654
236,5;1,971,974;0,1657
237,36;1,979,129;0,166
238,22;1,986,286;0,1664
239,08;1,993,466;0,1668
239,94;2,000,643;0,1672
240,8;2,007,801;0,1676
241,66;2,014,947;0,1681
242,52;2,022,118;0,1686
243,38;2,029,306;0,169
244,24;2,036,471;0,1695
245,1;2,043,634;0,1699
245,96;2,050,786;0,1703
246,82;2,057,957;0,1707
247,68;206,514;0,1711
248,54;2,072,289;0,1716
249,4;2,079,465;0,1721
250,26;2,086,635;0,1725
251,12;209,381;0,1729
251,98;2,100,954;0,173
252,84;2,108,107;0,1719
253,162;2,110,849;0,1004